info id 'SCAN 12: solar spectrum                                              '
info wref     9002.066758
info delw    0.41590306190E+01
length   4096
readdata (8f10.4)                                                    
  151.7277  168.4465  179.2070  168.9369  175.3771  145.5712  182.1208  196.0025
  184.1670  159.2013  174.5754  211.5419  197.7821  167.6733  209.3142  191.8240
  200.6983  183.8512  206.2009  200.7205  211.7915  218.7671  194.9931  225.1900
  211.3842  211.8411  218.4789  241.9692  232.9328  216.4034  227.5403  236.7958
  229.8339  219.9650  241.3916  250.3873  218.8087  265.3359  257.9576  270.6557
  263.0511  253.8187  264.6204  265.4880  258.8426  280.6320  277.7427  238.5934
  279.8484  254.6961  286.7652  287.4794  277.4119  290.2965  287.6241  277.1092
  272.1881  299.5538  301.1970  271.3456  304.2715  296.6064  309.4728  312.4151
  290.7191  310.9959  318.2821  305.4427  322.5576  323.6602  327.4087  321.1954
  305.0110  318.4678  333.8767  335.8622  306.1233  334.4681  337.6305  340.4415
  337.6331  339.2189  345.1324  329.8325  310.8259  335.9410  336.1364  352.3643
  353.8247  356.4281  334.1413  360.4061  363.1555  362.5253  366.8159  370.1736
  370.2974  364.4765  377.3524  379.8276  383.4376  383.9114  377.2325  381.3853
  396.7247  399.7088  373.5266  392.2430  407.1825  411.2124  414.8492  417.3364
  418.5832  420.2989  425.1983  426.8477  426.7372  429.0172  423.8916  436.5555
  438.5450  440.1918  441.0818  445.3745  446.8939  449.5245  449.8468  454.7953
  455.3273  460.0551  461.0669  454.1158  465.1805  468.2771  451.7397  454.4685
  472.9792  476.5690  477.5517  477.5021  482.8090  483.3417  480.6088  487.3683
  489.5272  486.4713  493.6672  494.7975  487.2172  498.5864  501.0103  502.6747
  495.9745  484.5417  507.7874  505.8884  511.1089  509.6043  510.0320  497.0046
  511.1338  518.3781  512.1193  502.3468  523.2496  524.3063  522.0093  525.9388
  527.6123  524.2297  528.5809  532.3145  523.0835  532.1929  535.3248  531.8377
  536.0242  538.8466  538.1939  540.3723  538.8323  542.4175  542.4762  545.7161
  537.0185  542.7169  540.8540  549.6147  527.0339  546.2578  551.8931  551.8265
  553.1931  551.0583  541.1257  555.2904  556.7559  557.5028  557.1401  556.4216
  554.9981  560.4889  558.5137  552.8173  561.9141  540.5790  561.3672  562.5403
  564.8730  563.1598  553.2563  560.8456  561.0715  565.3560  566.0558  567.1793
  563.9123  556.9816  563.2167  561.0809  565.7175  563.3852  566.0052  560.4837
  550.1213  561.3854  551.0551  517.8745  521.2219  554.2100  557.4288  559.0598
  567.9691  569.3911  563.6570  557.0925  570.1833  570.6813  575.0945  570.2681
  567.3526  562.4919  573.6053  568.0881  572.8698  568.7281  575.4457  572.0388
  574.9218  571.8961  570.0309  568.5632  571.6327  566.2751  573.3381  574.0008
  561.6076  559.0873  569.7363  571.5219  566.2125  567.7833  568.8517  569.4965
  551.8636  567.7673  545.1445  563.7737  568.7223  566.6016  544.3924  549.0711
  564.8909  557.9139  563.4396  561.1704  525.0004  544.6043  542.3384  556.5441
  531.2611  558.3303  481.7410  550.8411  528.0609  532.9614  552.3854  554.2023
  433.1134  543.3555  467.9433  490.0854  517.6342  461.0226  495.3259  513.2848
  531.7436  495.4588  441.7002  433.5993  469.0800  461.2459  521.6677  462.7291
  393.3925  477.5397  495.3249  480.9522  489.5354  540.5587  465.0995  508.2456
  529.3294  465.3080  493.5878  520.5797  486.2667  508.7283  493.4766  446.3249
  525.5617  423.9180  461.4891  328.5914  413.4522  426.0730  437.7688  408.7040
  364.1057  422.2815  272.7425  504.0842  442.5549  332.9294  293.5483  397.6546
  434.9629  366.9816  313.1533  440.0201  326.1748  322.9658  190.6241  390.9317
  343.8146  334.2509  471.8300  348.8027  279.3908  247.6584  426.6443  223.7047
  310.7979  352.4175  203.9507  378.1418  295.5674  402.4864  277.2216  333.4507
  211.8930  170.3479  347.5890  427.7289  397.5942  295.3746  162.5693  187.9554
  355.3908  387.5664  339.5201  132.0484  320.2992  343.6963  218.5114  325.1339
  215.2172  267.9133  196.0139  333.2223  359.7133  176.2516  122.1973  351.7755
  312.4543  108.5176  339.6457  319.8461  291.9116  324.0647  223.9098  335.8203
  291.2618  307.7327  378.4491  386.0087  242.2360  347.0990  119.4860  196.3981
  250.3691  136.0979  162.8912  330.5379  133.2802  144.3016  289.4602  316.9576
   18.4979  195.9581  176.5460  159.0332  286.5204  166.3546  225.5002  246.7384
  176.9625  352.4642  214.4207  344.6198  296.9920  314.7049  318.4480  353.8591
  314.3788  405.0600  304.6426  410.7794  399.9973  429.2507  431.4778  373.4494
  406.4149  389.0894  392.5276  400.3565  378.4618  398.8695  365.9845  404.6437
  367.8768  390.8701  422.8975  371.7022  379.5050  391.2975  387.5503  412.8386
  430.9839  394.7765  353.1392  411.6588  416.1330  338.8521  382.7088  320.9919
  291.8264  362.3684  404.6850  373.2546  382.9170  280.4474  276.5502  375.0475
  374.7409  384.2347  332.3182  303.9396  287.9472  352.1815  387.8496  390.8700
  278.0917  396.8257  388.8227  262.9883  393.7320  281.2215  364.6049  319.4137
  334.2426  297.6069  360.1357  268.7010  384.4420  295.3438  317.5168  386.0264
  306.3528  364.5977  395.9715  339.8986  377.6544  396.0972  345.6031  381.2854
  383.6297  347.8598  366.9789  291.5067  309.0247  284.9161  336.3533  299.2036
  279.5849  301.3168  274.8486  362.9732  365.1467  228.6829  204.0928  368.5412
  305.3452  359.3838  306.0208  300.4937  335.9907  291.9647  324.6713  353.1491
  313.2034  338.8186  320.0720  352.7014  343.0128  370.1913  351.2292  349.6245
  334.6249  354.9913  355.6458  356.5587  361.9213  349.9843  359.2821  357.5134
  357.6001  350.9191  357.1989  347.6447  356.2491  353.0189  351.7698  343.5142
  346.6907  350.6029  328.0527  336.7230  332.1522  337.5066  346.1214  345.1356
  346.0872  339.2083  343.9185  333.1453  340.9039  340.7553  341.3419  340.7456
  321.1045  336.8305  338.7429  337.0106  332.9149  283.0581  327.1701  335.0731
  331.0146  318.2271  319.6627  332.8199  328.6439  327.2559  330.0931  316.3918
  319.3021  326.9724  312.6363  325.2503  314.4865  321.3982  304.6618  316.9254
  319.2309  309.5530  318.2486  298.5132  318.8737  313.3424  308.6677  318.2901
  317.5267  306.4693  304.2780  303.5951  313.6379  311.7551  311.1439  303.8564
  308.3844  310.7927  281.6794  304.0516  306.6411  298.0792  300.1631  292.8372
  295.6819  285.1958  222.2571  203.4387  283.7213  295.3077  298.7157  285.1017
  300.3470  300.1254  300.7978  299.3428  295.4598  299.3849  298.6417  296.7408
  290.4709  292.7300  292.8489  282.6623  291.7318  291.9444  292.0002  285.7374
  284.1792  285.1824  290.3947  288.1469  281.4476  290.0555  289.5024  286.3481
  283.8310  286.5429  287.0542  283.3648  283.5843  268.6024  279.6070  272.1833
  255.4300  191.4113  173.6782  248.5397  268.3390  277.1416  277.7267  271.0624
  279.2326  275.9786  270.3656  264.7809  276.2097  279.4911  273.9377  260.7920
  195.4860  261.8940  272.7367  276.5213  275.6965  274.1632  272.7796  275.1912
  275.5223  271.9116  261.5624  273.0663  274.3637  272.2665  273.2960  274.3440
  270.9761  263.5648  267.5651  269.6021  261.7027  253.6907  272.0386  268.8015
  263.8441  264.9993  269.2345  262.7323  264.5519  265.3566  262.0567  265.2467
  267.1401  264.2956  263.2590  263.2983  268.1023  248.3762  259.8373  258.0200
  268.2150  253.1610  257.1962  263.4527  258.5565  257.2264  253.6428  257.4390
  251.8460  252.8310  262.5499  251.2481  249.4807  255.3717  228.1490  246.5240
  240.2038  234.9779  240.8945  261.1694  218.5240  239.0870  247.1997  245.4279
  245.5497  257.4224  213.0874  247.5955  249.1001  250.4043  220.5473  241.1868
  220.1113  260.5133  228.0471  236.2901  228.2716  207.5540  256.5494  260.5015
  242.6983  258.6422  237.5476  225.3271  246.3858  261.0529  247.8046  242.3328
  240.7968  246.3463  243.1525  220.9708  176.4964  139.5616  224.0580  241.3775
  225.5990  250.2076  237.8119  239.5906  249.4627  256.8294  255.8639  213.3684
  219.4831  199.5979  253.9220  216.1217  231.0830  208.7461  232.7294  178.8403
  253.7422  253.8297  189.5726  248.6155  188.5803  210.2566  233.4544  224.3155
  229.3012  226.1345  218.4520  244.8334  222.2269  254.2354  232.7721  230.9602
  237.7432  257.6599  255.5649  248.1903  253.7773  262.1299  250.0831  256.6481
  254.9096  260.2822  262.0930  260.6613  245.1477  257.8880  255.2002  261.4173
  263.9110  251.4537  260.2276  265.2889  261.6416  264.4888  258.3282  267.0483
  266.7491  265.4279  265.6639  267.6618  261.6845  267.5605  256.6130  249.6784
  260.1967  266.2979  271.0192  258.6665  268.7137  268.0762  248.7403  263.2245
  262.9576  269.6584  269.6452  261.3372  267.3748  260.1220  269.4801  268.9834
  263.6496  251.9491  264.3583  272.0392  273.1508  267.5254  269.4242  274.0931
  270.4591  273.5813  272.9071  267.2770  269.6507  274.0826  262.1057  265.3026
  267.1740  272.7987  274.1262  272.9463  273.8624  247.3139  272.5060  273.8147
  259.3556  278.2397  254.5775  265.3979  275.7728  271.2910  272.5506  268.7436
  270.0887  273.4180  277.0405  268.5539  282.4203  279.2617  270.4806  283.3198
  267.3766  273.6872  279.4641  279.9323  282.7107  280.2037  279.9927  277.8044
  283.7155  283.9047  281.1436  284.6220  284.3866  285.5359  288.9926  288.6892
  284.2739  288.2975  282.1670  289.4159  287.5044  290.3043  290.1003  277.9595
  289.1935  275.6609  292.7120  291.5466  293.5544  292.4959  293.7043  293.8060
  293.3284  285.4548  287.1349  294.7650  293.8065  287.6373  285.0555  296.8129
  297.3099  297.2495  287.0421  298.0505  298.2347  281.9724  298.2733  290.8712
  286.2962  300.1360  300.7810  299.8488  300.9131  295.6874  301.2880  300.1138
  301.8652  296.1439  278.6679  298.4463  288.2147  303.7648  304.1887  303.7799
  299.9572  304.6279  293.7408  304.0807  297.1899  304.6227  302.5071  292.5524
  298.1789  291.3507  308.4493  308.6509  304.9317  309.1100  288.5350  297.0874
  308.4591  285.2455  296.8821  310.7380  286.5074  300.6402  292.9030  292.7841
  312.1772  258.0933  303.5588  270.4889  253.7579  255.7066  240.8997  280.7640
  190.7265  294.7549  166.6401  286.1028  146.2834  253.4998  151.0283  197.1566
  186.5906  150.1279  214.6113  114.5798  193.3359  208.9740  217.3242  291.2178
  169.4384  130.4378  129.2335  101.5812   79.1731   73.8353   82.9594  136.7498
  135.9418  249.3157  324.6560  321.2813  307.6818  315.6144  326.5089  327.4180
  329.6638  317.1773  329.4111  317.5702  327.4409  330.1488  328.9591  325.3624
  329.5005  317.4820  331.1029  332.4930  330.1034  326.4012  334.4118  332.1953
  335.5572  336.0872  333.9566  319.9846  337.2853  336.4835  327.7156  324.7042
  338.4431  338.9780  336.2848  338.5384  311.1783  332.5570  336.0948  340.3077
  340.6872  339.8452  341.2307  316.0170  332.8144  343.2594  343.5381  344.3450
  338.0535  344.5785  343.6366  341.2826  341.8102  347.4006  347.7620  348.7332
  345.9950  328.4793  349.4026  350.3342  348.5743  350.1006  348.5442  344.5572
  330.3275  346.4432  341.6285  352.9124  350.9305  355.0853  347.0494  355.2274
  355.9958  349.8655  322.6959  354.8930  349.0681  330.1337  354.1489  337.1657
  335.0945  343.6972  361.2118  351.4603  348.8868  354.5358  356.4371  344.4797
  345.0968  330.6734  339.5898  350.0325  354.4188  363.5491  357.2194  358.0283
  357.5280  352.8566  360.0296  356.3660  346.0117  345.8076  365.5412  344.5538
  358.1516  356.2272  351.3596  364.6492  360.7694  360.9545  370.0045  374.4710
  366.1667  349.1580  356.0607  363.4716  351.8349  353.4723  366.9602  360.6879
  333.7932  336.4006  368.8378  332.5168  322.1259  358.4172  344.8374  314.4747
  349.1488  368.1598  370.7650  334.5318  312.9768  297.7419  330.0179  372.4940
  345.0232  371.9199  345.6424  278.8953  361.2354  335.7077  358.8925  383.2447
  298.9821  365.1218  329.7812  361.2279  363.9539  351.4908  296.7344  359.8452
  359.4588  348.8094  327.5426  321.2932  367.0703  359.9200  307.5865  326.0742
  390.6754  358.7374  388.4490  355.2068  386.9208  387.5242  365.8805  386.3252
  394.3422  387.8802  366.8041  305.6483  334.0709  353.7897  308.0822  326.2160
  361.7913  322.5198  307.2189  387.5535  273.6204  300.1769  390.9704  332.0999
  375.8549  308.1465  352.3272  366.9268  361.5569  359.2856  380.4736  374.5347
  407.6742  403.8121  413.2259  408.3384  416.2958  402.1376  385.0721  412.4962
  412.5901  410.2907  419.1795  418.2284  423.0638  413.8434  401.8021  417.4355
  416.1337  425.0294  422.6599  406.9786  416.4531  423.3317  422.0287  417.2597
  418.9010  426.5932  421.1622  431.0696  427.1516  427.3778  425.9713  422.7952
  426.8720  428.7893  418.1427  420.3871  417.7057  423.1295  435.8100  429.2121
  431.6479  433.9644  434.6598  431.7251  419.5768  431.3222  432.3556  430.5249
  422.3464  434.3656  426.6176  435.8083  420.6791  431.2125  441.6176  438.0142
  437.9463  441.9743  424.8332  408.5750  430.3490  442.7013  438.0181  435.8642
  408.6499  425.1022  403.5305  439.8354  439.5220  396.2700  419.4461  434.0499
  425.9685  440.5201  431.6295  393.5528  431.9285  440.5128  407.9441  449.9571
  436.1006  431.8392  438.0166  420.0948  431.4577  447.6770  450.4872  435.7946
  417.4438  424.1840  446.2559  449.1917  445.1751  454.3290  448.7897  440.5523
  452.2415  414.5256  446.0561  416.1071  434.1371  444.6351  432.2860  405.1066
  451.3368  416.3113  428.5913  404.9691  430.1524  447.1562  419.1118  438.3505
  424.7254  431.6729  438.6679  412.3397  435.5088  449.9702  408.6120  435.3161
  406.7210  424.2425  430.1627  410.4082  442.1223  377.4916  443.9036  369.5973
  444.8834  360.0890  439.2158  359.7134  401.8338  403.1107  369.7577  415.0722
  428.2491  418.0384  405.7500  364.8352  345.6013  320.5203  320.7934  269.4889
  375.8373  443.1169  438.6039  432.7901  437.6551  432.7268  417.4830  442.8033
  440.4721  437.4479  440.6948  439.1332  415.7513  413.2014  420.2402  431.6380
  436.9090  434.9572  437.1603  435.9116  419.4906  435.4818  434.1558  433.8928
  421.9613  433.1012  432.5157  423.9131  430.2003  419.1394  429.0135  420.8995
  419.2227  427.1989  423.0953  421.2436  419.9308  418.6463  417.5683  422.7965
  421.0622  415.5084  414.8544  410.8266  415.4995  418.9631  415.8891  417.4538
  415.6300  404.5039  409.1547  395.8885  411.1770  410.5667  410.8766  409.5970
  407.7061  403.9244  404.4817  397.9893  406.2705  385.1441  400.9567  399.5009
  397.0175  398.2116  399.1776  392.2679  399.1603  397.5754  392.3362  397.2324
  395.6202  386.4690  391.8538  393.1581  383.9109  388.0160  364.4390  381.6679
  379.5019  389.0269  384.9854  386.1136  383.4753  373.5295  386.5305  385.4179
  378.6621  370.0159  383.9477  382.4616  382.3009  382.2030  380.5916  380.8720
  379.7644  378.1177  376.6926  347.2487  376.3298  375.8169  373.2383  374.6000
  370.9526  368.7672  369.1676  348.6697  367.9199  370.5401  370.4932  369.4699
  367.2071  368.7309  368.9960  366.3759  365.5521  365.0233  345.7638  365.8480
  358.0344  363.9878  355.9601  335.3205  358.4286  361.0779  356.6221  361.7238
  357.6149  360.7928  360.8700  359.9681  357.8512  359.8761  355.4000  357.3286
  354.5444  341.1955  353.3260  348.7683  355.1703  355.9709  347.2015  345.7961
  352.9055  323.3951  335.2503  353.9366  349.3607  338.6427  349.4226  343.5353
  342.1011  346.1785  347.4482  330.9784  332.1356  328.2932  331.4574  311.9900
  317.5649  289.2128  147.0233  256.1329  302.1634  316.9365  316.4812  329.5350
  331.2844  342.4048  337.9911  331.2799  335.5327  338.5396  345.6217  349.3412
  348.5950  347.6549  338.5577  341.7848  349.3371  349.1750  340.4644  347.0409
  344.5300  349.2625  350.7415  325.7983  328.2080  336.2264  351.5285  349.8110
  353.4187  348.7049  354.8169  351.1456  353.0018  349.4141  327.9305  331.1540
  302.5785  308.2038  341.1691  346.6384  354.1378  352.8784  354.0179  334.2502
  343.5060  350.2976  357.0642  348.2439  339.6197  354.0547  341.0390  344.1653
  360.1672  359.2127  358.0084  313.4555  363.4247  360.7856  360.7669  337.8017
  364.8561  364.8925  333.9492  359.5565  369.7536  370.6324  369.8041  372.4698
  367.8150  332.6494  371.9608  374.4882  361.2635  349.1138  374.3269  377.0825
  376.3752  375.9387  380.2649  352.5430  357.9769  373.8629  376.9394  366.6457
  380.0013  351.9495  381.9987  351.0104  382.1226  387.5417  387.8958  336.8871
  383.6237  390.5450  389.8282  357.7131  389.0325  394.2278  395.7541  397.1619
  388.7444  395.9264  398.2070  387.4905  392.4702  401.8623  400.2484  403.2364
  396.1728  396.7513  405.4780  398.3326  395.6072  392.3454  386.4918  398.1848
  387.4863  411.6217  392.1872  412.2872  414.1837  413.6800  416.2072  403.1764
  401.0838  404.8357  415.7907  412.8277  408.5869  391.6997  398.7214  427.3393
  414.5962  421.3387  419.3091  430.0326  430.0913  409.7238  425.2711  416.8879
  386.8795  420.0353  391.7120  437.4468  426.6422  425.7503  438.2131  437.0293
  436.3511  425.7248  389.4720  427.3249  416.7064  436.5901  442.2477  435.9841
  434.6109  433.2175  448.6728  448.0752  447.9365  448.1005  433.9840  415.3214
  418.5454  423.3136  458.4849  461.3812  453.8273  445.7903  464.0878  463.1306
  439.9101  468.6434  467.9014  455.0497  442.4841  455.4846  438.4615  428.9064
  433.3299  475.7527  471.1221  459.8446  429.0959  447.6857  467.6860  465.5340
  472.1958  447.6995  481.7029  485.2258  455.2250  441.5823  459.4327  484.8694
  478.6589  486.3594  480.7119  485.4127  473.4343  466.3244  480.0060  463.5359
  466.2156  493.4898  494.4863  494.2002  496.7326  498.0860  491.7254  499.1156
  474.8818  494.8899  502.0341  496.1340  494.1960  501.9854  434.8915  501.1795
  488.0170  490.3651  502.3580  499.6956  507.2406  486.8984  506.4502  482.5836
  491.4189  488.0688  509.8154  478.4731  440.7808  512.0945  473.7431  485.5274
  416.9408  460.4480  509.4346  490.8052  506.2685  471.8430  516.1059  500.3867
  514.0164  492.2709  506.7573  504.9218  519.4164  465.7659  519.3002  511.7389
  443.7930  466.5725  520.6427  521.2148  505.7396  508.1170  502.1758  517.7379
  513.2800  519.8994  449.6854  517.9585  519.2321  524.0028  503.9101  527.6219
  520.2299  513.1937  529.6223  506.3351  523.8448  525.4568  450.8389  497.7910
  527.6753  524.4022  516.3124  532.1151  515.3989  515.4870  517.6849  518.6642
  525.9272  517.4794  512.7781  521.0942  526.6619  534.5275  489.5338  528.6395
  535.4823  537.3594  536.5486  536.0063  537.8228  536.7534  533.1758  496.2387
  528.0879  538.7596  537.5157  537.2451  534.8361  508.4924  526.9946  534.5234
  541.1407  538.4415  538.9719  534.7883  538.9171  540.8771  519.2559  536.7557
  541.0633  541.2469  537.3887  538.9391  542.1483  538.1664  534.7443  538.2319
  517.2449  540.7376  497.6678  504.7312  500.4967  531.1337  539.0837  503.5000
  537.7112  506.3455  533.1587  542.4404  495.4747  519.1398  531.5187  541.3641
  507.0664  540.0240  535.6641  512.9682  530.0308  541.8007  542.9357  536.7075
  526.6198  534.2246  520.3173  537.3716  502.6606  513.8394  541.0310  543.8940
  532.6978  505.2905  519.0153  542.3532  546.0480  542.4426  542.5255  528.5927
  537.0093  533.4885  547.8262  543.0024  546.4801  542.8416  521.9240  525.7057
  546.0995  535.7166  523.2444  545.6033  495.3373  532.4193  531.0107  542.4921
  546.2418  520.5192  531.5080  559.0054  552.4600  557.3039  524.5879  553.5065
  551.1917  509.0866  553.1514  548.6160  566.7510  535.5781  552.9752  562.8336
  551.2175  541.3152  562.1342  543.1195  519.0499  566.5298  569.5629  558.1706
  566.0721  567.5108  551.6249  575.6654  574.6390  565.0309  540.0688  559.5846
  468.7688  454.1250  577.5527  524.3864  493.5302  368.5913  570.4240  574.8592
  598.3035  567.2337  600.6434  594.8618  597.3144  608.1846  609.8224  615.6556
  609.3497  623.7657  621.7672  622.7375  617.9124  608.5292  633.0740  631.0692
  595.2482  637.4496  599.3256  555.9088  628.3330  638.5302  616.4612  635.2335
  652.0717  652.6111  641.7125  648.3491  658.2603  666.1959  668.1816  670.2901
